Current (mA)	Peak position(s) (nm)
 2.000	848.649
 3.000	848.604	848.896
 4.000	848.874	849.165
 5.000	848.784	849.143	849.456
 6.000	849.053	849.433	849.768
 7.000	849.344	849.746
 8.000	849.679	850.102
 9.000	849.567	850.013	850.458
10.000	849.924	850.391	850.835
12.000	850.125	850.702	851.189	851.674
14.000	850.968	851.453	851.564	852.092	852.596
16.000	851.916	852.421	852.508	853.076	853.599
18.000	852.945	853.577	854.141
20.000	854.119	854.767
