Current (mA)	Peak position(s) (nm)
 2.000	846.546	846.978
 3.000	846.842	847.318
 4.000	847.182	847.680
 5.000	847.567	848.087
 6.000	847.364	847.996	848.537
 7.000	847.771	848.424	849.008
 8.000	848.222	848.896	849.500
 9.000	848.559	848.627	848.717	849.411	850.013
10.000	849.053	849.143	849.210	849.902	850.569
12.000	850.147	850.214	850.280	851.056
14.000	850.569	851.321	851.387	851.453	852.245
16.000	851.806	852.661	852.749	853.555
18.000	854.141	854.983
