Current (mA)	Peak position(s) (nm)
 2.000	848.739
 3.000	848.582	848.627	849.098
 4.000	848.941	848.986	849.500
 5.000	849.389	849.924
 6.000	849.835	850.414
 7.000	849.679	850.325	850.923
 8.000	850.169	850.857	851.453
 9.000	850.547	850.613	850.702	851.365	851.409	852.026
10.000	851.100	851.167	851.255	851.938
12.000	852.377	852.442	853.207
14.000	853.773	854.573
