Current (mA)	Peak position(s) (nm)
 2.000	846.592	846.933
 3.000	846.842	847.205
 4.000	847.137	847.499
 5.000	846.978	847.432	847.816
 6.000	847.296	847.748	848.154
 7.000	847.635	848.109	848.537
 8.000	847.974	848.492	848.941
 9.000	848.357	848.874	849.344
10.000	848.739	848.784	849.299
12.000	848.829	848.986	849.590	849.634	850.191
14.000	849.768	849.924	850.547	850.591	851.167
16.000	850.768	850.923	851.586	852.223
18.000	851.982	852.683	853.338
20.000	852.355	853.164	853.903
