Current (mA)	Peak position(s) (nm)
 2.000	846.637	846.887
 3.000	846.842	847.114
 4.000	846.728	847.092	847.386
 5.000	846.978	847.341	847.658
 6.000	847.228	847.613	847.929
 7.000	847.522	847.906
 8.000	847.364	847.816	848.222
 9.000	847.137	847.680	848.132	848.559
10.000	847.454	847.996	848.447	848.896
12.000	848.132	848.559	848.694	849.187	849.657
14.000	848.244	848.896	849.344	849.456	849.969	850.480
16.000	849.053	849.724	850.191	850.280	850.835	851.365
18.000	849.924	850.591	851.100	851.189	851.784
20.000	850.835	851.387	851.542	852.070	852.157	852.771
