Current (mA)	Voltage (V)	Power (mW)
0.00000	0.11271	0.00233
0.05000	0.69285	0.00218
0.10000	1.32964	0.00193
0.15000	1.35475	0.00211
0.20000	1.37360	0.00185
0.25000	1.38833	0.00155
0.30000	1.40116	0.00207
0.35000	1.41231	0.00222
0.40000	1.42219	0.00181
0.45000	1.43124	0.00197
0.50000	1.43952	0.00204
0.55000	1.44730	0.00252
0.60000	1.45454	0.00241
0.65000	1.46138	0.00189
0.70000	1.46798	0.00256
0.75000	1.47410	0.00245
0.80000	1.48003	0.00275
0.85000	1.48555	0.00241
0.90000	1.49119	0.00256
0.95000	1.49629	0.00316
1.00000	1.50140	0.00312
1.05000	1.50635	0.00304
1.10000	1.51102	0.00331
1.15000	1.51565	0.00360
1.20000	1.51993	0.00316
1.25000	1.52442	0.00342
1.30000	1.52858	0.00406
1.35000	1.53279	0.00410
1.40000	1.53682	0.00410
1.45000	1.54073	0.00424
1.50000	1.54469	0.00410
1.55000	1.54840	0.00458
1.60000	1.55210	0.00481
1.65000	1.55566	0.00506
1.70000	1.55936	0.00465
1.75000	1.56289	0.00510
1.80000	1.56628	0.00488
1.85000	1.56980	0.00498
1.90000	1.57305	0.00510
1.95000	1.57634	0.00562
2.00000	1.57965	0.00585
2.05000	1.58286	0.00592
2.10000	1.58610	0.00573
2.15000	1.58915	0.00619
2.20000	1.59219	0.00630
2.25000	1.59526	0.00660
2.30000	1.59829	0.00675
2.35000	1.60123	0.00644
2.40000	1.60426	0.00690
2.45000	1.60711	0.00734
2.50000	1.60991	0.00734
2.55000	1.61282	0.00734
2.60000	1.61557	0.00776
2.65000	1.61841	0.00805
2.70000	1.62120	0.00865
2.75000	1.62389	0.00840
2.80000	1.62660	0.00895
2.85000	1.62921	0.00944
2.90000	1.63192	0.00982
2.95000	1.63448	0.00989
3.00000	1.63706	0.01093
3.05000	1.63979	0.01187
3.10000	1.64225	0.01291
3.15000	1.64476	0.01414
3.20000	1.64718	0.01679
3.25000	1.64962	0.02060
3.30000	1.65190	0.02535
3.35000	1.65422	0.03353
3.40000	1.65644	0.04184
3.45000	1.65869	0.05194
3.50000	1.66084	0.06202
3.55000	1.66299	0.07178
3.60000	1.66517	0.08206
3.65000	1.66735	0.09234
3.70000	1.66955	0.10169
3.75000	1.67162	0.11152
3.80000	1.67378	0.12068
3.85000	1.67599	0.13040
3.90000	1.67807	0.13956
3.95000	1.68020	0.14857
4.00000	1.68231	0.15694
4.05000	1.68442	0.16550
4.10000	1.68655	0.17421
4.15000	1.68866	0.18225
4.20000	1.69080	0.19107
4.25000	1.69278	0.19907
4.30000	1.69492	0.20786
4.35000	1.69691	0.21548
4.40000	1.69907	0.22408
4.45000	1.70113	0.23227
4.50000	1.70314	0.24139
4.55000	1.70522	0.25055
4.60000	1.70712	0.25953
4.65000	1.70922	0.26849
4.70000	1.71106	0.27863
4.75000	1.71321	0.28797
4.80000	1.71514	0.29780
4.85000	1.71702	0.30711
4.90000	1.71902	0.31671
4.95000	1.72096	0.32655
5.00000	1.72295	0.33619
5.05000	1.72487	0.34449
5.10000	1.72682	0.35403
5.15000	1.72881	0.36382
5.20000	1.73067	0.37234
5.25000	1.73265	0.38082
5.30000	1.73447	0.38942
5.35000	1.73648	0.39855
5.40000	1.73840	0.40722
5.45000	1.74028	0.41526
5.50000	1.74225	0.42299
5.55000	1.74414	0.43115
5.60000	1.74600	0.43892
5.65000	1.74795	0.44655
5.70000	1.74982	0.45336
5.75000	1.75175	0.46124
5.80000	1.75369	0.46835
5.85000	1.75549	0.47463
5.90000	1.75744	0.48042
5.95000	1.75929	0.48782
6.00000	1.76112	0.49403
6.05000	1.76305	0.50019
6.10000	1.76493	0.50576
6.15000	1.76672	0.51179
6.20000	1.76865	0.51720
6.25000	1.77044	0.52232
6.30000	1.77233	0.52789
6.35000	1.77414	0.53269
6.40000	1.77603	0.53795
6.45000	1.77790	0.54263
6.50000	1.77960	0.54651
6.55000	1.78147	0.55119
6.60000	1.78328	0.55563
6.65000	1.78516	0.55945
6.70000	1.78697	0.56326
6.75000	1.78873	0.56692
6.80000	1.79062	0.57037
6.85000	1.79243	0.57235
6.90000	1.79421	0.57541
6.95000	1.79591	0.57747
7.00000	1.79779	0.57878
7.05000	1.79950	0.58102
7.10000	1.80127	0.58296
7.15000	1.80310	0.58434
7.20000	1.80487	0.58678
7.25000	1.80669	0.58778
7.30000	1.80848	0.58924
7.35000	1.81023	0.59104
7.40000	1.81193	0.59133
7.45000	1.81374	0.59227
7.50000	1.81552	0.59264
7.55000	1.81725	0.59342
7.60000	1.81899	0.59346
7.65000	1.82070	0.59354
7.70000	1.82246	0.59264
7.75000	1.82427	0.59254
7.80000	1.82595	0.59096
7.85000	1.82775	0.59029
7.90000	1.82944	0.58912
7.95000	1.83111	0.58745
8.00000	1.83282	0.58524
8.05000	1.83446	0.58340
8.10000	1.83633	0.58165
8.15000	1.83800	0.57956
8.20000	1.83979	0.57690
8.25000	1.84140	0.57421
8.30000	1.84317	0.57164
8.35000	1.84471	0.56838
8.40000	1.84644	0.56479
8.45000	1.84815	0.56150
8.50000	1.84976	0.55780
8.55000	1.85151	0.55369
8.60000	1.85314	0.54958
8.65000	1.85483	0.54505
8.70000	1.85643	0.54064
8.75000	1.85807	0.53601
8.80000	1.85979	0.53100
8.85000	1.86135	0.52580
8.90000	1.86307	0.52113
8.95000	1.86465	0.51563
9.00000	1.86635	0.50987
9.05000	1.86789	0.50344
9.10000	1.86960	0.49743
9.15000	1.87121	0.49062
9.20000	1.87280	0.48281
9.25000	1.87444	0.47589
9.30000	1.87596	0.46891
9.35000	1.87768	0.46180
9.40000	1.87923	0.45403
9.45000	1.88084	0.44532
9.50000	1.88244	0.43656
9.55000	1.88405	0.42831
9.60000	1.88557	0.41937
9.65000	1.88715	0.41077
9.70000	1.88873	0.40075
9.75000	1.89029	0.39197
9.80000	1.89187	0.38172
9.85000	1.89348	0.37182
9.90000	1.89502	0.36109
9.95000	1.89652	0.35174
10.00000	1.89810	0.34005
10.05000	1.89967	0.32940
10.10000	1.90119	0.31780
10.15000	1.90276	0.30602
10.20000	1.90426	0.29429
10.25000	1.90578	0.28307
10.30000	1.90733	0.27111
10.35000	1.90884	0.25930
10.40000	1.91041	0.24771
10.45000	1.91191	0.23608
10.50000	1.91342	0.22389
10.55000	1.91499	0.21181
10.60000	1.91639	0.20020
10.65000	1.91794	0.18692
10.70000	1.91942	0.17406
10.75000	1.92090	0.16023
10.80000	1.92235	0.14591
10.85000	1.92392	0.13242
10.90000	1.92535	0.11829
10.95000	1.92682	0.10430
11.00000	1.92833	0.09044
11.05000	1.92970	0.07829
11.10000	1.93128	0.06729
11.15000	1.93274	0.05724
11.20000	1.93406	0.04965
11.25000	1.93561	0.04426
11.30000	1.93698	0.03948
11.35000	1.93846	0.03593
11.40000	1.93979	0.03282
11.45000	1.94130	0.03122
11.50000	1.94265	0.02939
11.55000	1.94411	0.02760
11.60000	1.94549	0.02625
11.65000	1.94692	0.02561
11.70000	1.94835	0.02468
11.75000	1.94975	0.02378
11.80000	1.95111	0.02303
11.85000	1.95262	0.02266
11.90000	1.95400	0.02240
11.95000	1.95540	0.02169
12.00000	1.95673	0.02117
12.05000	1.95809	0.02090
12.10000	1.95952	0.02019
12.15000	1.96090	0.02015
12.20000	1.96240	0.01967
12.25000	1.96374	0.01952
12.30000	1.96513	0.01963
12.35000	1.96645	0.01904
12.40000	1.96790	0.01854
12.45000	1.96922	0.01836
12.50000	1.97062	0.01825
12.55000	1.97206	0.01769
12.60000	1.97341	0.01739
12.65000	1.97474	0.01716
12.70000	1.97611	0.01716
12.75000	1.97759	0.01712
12.80000	1.97882	0.01668
12.85000	1.98024	0.01660
12.90000	1.98161	0.01687
12.95000	1.98293	0.01664
13.00000	1.98438	0.01627
13.05000	1.98567	0.01612
13.10000	1.98706	0.01604
13.15000	1.98842	0.01637
13.20000	1.98975	0.01578
13.25000	1.99112	0.01582
13.30000	1.99251	0.01593
13.35000	1.99386	0.01574
13.40000	1.99515	0.01563
13.45000	1.99654	0.01518
13.50000	1.99789	0.01537
13.55000	1.99919	0.01518
13.60000	2.00057	0.01530
13.65000	2.00193	0.01491
13.70000	2.00328	0.01499
13.75000	2.00453	0.01499
13.80000	2.00589	0.01495
13.85000	2.00729	0.01420
13.90000	2.00855	0.01428
13.95000	2.00990	0.01478
14.00000	2.01123	0.01462
14.05000	2.01260	0.01420
14.10000	2.01388	0.01410
14.15000	2.01519	0.01365
14.20000	2.01661	0.01424
14.25000	2.01788	0.01418
14.30000	2.01928	0.01420
14.35000	2.02051	0.01399
14.40000	2.02187	0.01403
14.45000	2.02320	0.01403
14.50000	2.02451	0.01341
14.55000	2.02583	0.01372
14.60000	2.02716	0.01384
14.65000	2.02852	0.01368
14.70000	2.02977	0.01314
14.75000	2.03105	0.01341
14.80000	2.03234	0.01347
14.85000	2.03372	0.01347
14.90000	2.03512	0.01322
14.95000	2.03635	0.01287
15.00000	2.03762	0.01314
15.05000	2.03897	0.01318
15.10000	2.04024	0.01341
15.15000	2.04159	0.01262
15.20000	2.04284	0.01299
15.25000	2.04428	0.01310
15.30000	2.04545	0.01291
15.35000	2.04680	0.01287
15.40000	2.04801	0.01280
15.45000	2.04942	0.01276
15.50000	2.05069	0.01314
15.55000	2.05198	0.01251
15.60000	2.05334	0.01287
15.65000	2.05457	0.01303
15.70000	2.05586	0.01262
15.75000	2.05716	0.01216
15.80000	2.05845	0.01231
15.85000	2.05981	0.01228
15.90000	2.06105	0.01270
15.95000	2.06240	0.01243
16.00000	2.06363	0.01239
16.05000	2.06496	0.01209
16.10000	2.06624	0.01243
16.15000	2.06749	0.01216
16.20000	2.06884	0.01254
16.25000	2.07005	0.01239
16.30000	2.07143	0.01216
16.35000	2.07141	0.01228
16.40000	2.07096	0.01187
16.45000	2.07098	0.01220
16.50000	2.07101	0.01220
16.55000	2.07100	0.01209
16.60000	2.07098	0.01231
16.65000	2.07102	0.01224
16.70000	2.07091	0.01216
16.75000	2.07101	0.01220
16.80000	2.07106	0.01239
16.85000	2.07092	0.01195
16.90000	2.07091	0.01239
16.95000	2.07101	0.01191
17.00000	2.07099	0.01258
17.05000	2.07092	0.01183
17.10000	2.07097	0.01187
17.15000	2.07103	0.01231
17.20000	2.07092	0.01247
17.25000	2.07093	0.01183
17.30000	2.07094	0.01262
17.35000	2.07103	0.01251
17.40000	2.07096	0.01209
17.45000	2.07097	0.01209
17.50000	2.07098	0.01228
17.55000	2.07098	0.01220
17.60000	2.07102	0.01228
17.65000	2.07096	0.01266
17.70000	2.07088	0.01191
17.75000	2.07091	0.01202
17.80000	2.07098	0.01251
17.85000	2.07094	0.01191
17.90000	2.07103	0.01187
17.95000	2.07098	0.01251
18.00000	2.07096	0.01243
18.05000	2.07102	0.01243
18.10000	2.07093	0.01195
18.15000	2.07093	0.01183
18.20000	2.07099	0.01243
18.25000	2.07108	0.01239
18.30000	2.07093	0.01205
18.35000	2.07103	0.01216
18.40000	2.07093	0.01239
18.45000	2.07107	0.01228
18.50000	2.07092	0.01183
18.55000	2.07098	0.01179
18.60000	2.07098	0.01251
18.65000	2.07096	0.01216
18.70000	2.07101	0.01239
18.75000	2.07105	0.01205
18.80000	2.07088	0.01209
18.85000	2.07098	0.01212
18.90000	2.07101	0.01254
18.95000	2.07103	0.01209
19.00000	2.07088	0.01235
19.05000	2.07096	0.01247
19.10000	2.07093	0.01224
19.15000	2.07092	0.01164
19.20000	2.07092	0.01235
19.25000	2.07096	0.01231
19.30000	2.07104	0.01228
19.35000	2.07093	0.01183
19.40000	2.07098	0.01202
19.45000	2.07098	0.01220
19.50000	2.07098	0.01251
19.55000	2.07094	0.01179
19.60000	2.07098	0.01243
19.65000	2.07093	0.01239
19.70000	2.07093	0.01247
19.75000	2.07095	0.01235
19.80000	2.07096	0.01183
19.85000	2.07091	0.01216
19.90000	2.07102	0.01224
19.95000	2.07097	0.01216
20.00000	2.07098	0.01212
20.05000	2.07093	0.01220
20.10000	2.07098	0.01258
20.15000	2.07096	0.01195
20.20000	2.07095	0.01205
20.25000	2.07096	0.01209
20.30000	2.07097	0.01251
20.35000	2.07093	0.01251
20.40000	2.07099	0.01199
20.45000	2.07093	0.01216
20.50000	2.07093	0.01228
20.55000	2.07092	0.01212
20.60000	2.07106	0.01231
20.65000	2.07092	0.01228
20.70000	2.07100	0.01247
20.75000	2.07102	0.01202
20.80000	2.07103	0.01179
20.85000	2.07091	0.01212
20.90000	2.07091	0.01247
20.95000	2.07103	0.01212
21.00000	2.07094	0.01243
21.05000	2.07097	0.01191
21.10000	2.07099	0.01220
21.15000	2.07099	0.01205
21.20000	2.07096	0.01224
21.25000	2.07093	0.01205
21.30000	2.07098	0.01270
21.35000	2.07103	0.01231
21.40000	2.07106	0.01243
21.45000	2.07093	0.01212
21.50000	2.07093	0.01179
21.55000	2.07101	0.01231
21.60000	2.07092	0.01251
21.65000	2.07106	0.01243
21.70000	2.07101	0.01179
21.75000	2.07103	0.01231
21.80000	2.07101	0.01209
21.85000	2.07095	0.01209
21.90000	2.07098	0.01228
21.95000	2.07093	0.01262
22.00000	2.07102	0.01254
22.05000	2.07105	0.01254
22.10000	2.07097	0.01228
22.15000	2.07096	0.01216
22.20000	2.07108	0.01270
22.25000	2.07102	0.01262
22.30000	2.07095	0.01199
22.35000	2.07099	0.01220
22.40000	2.07098	0.01266
22.45000	2.07094	0.01228
22.50000	2.07088	0.01212
22.55000	2.07091	0.01212
22.60000	2.07098	0.01247
22.65000	2.07096	0.01243
22.70000	2.07093	0.01231
22.75000	2.07103	0.01187
22.80000	2.07093	0.01258
22.85000	2.07101	0.01247
22.90000	2.07102	0.01216
22.95000	2.07096	0.01205
23.00000	2.07102	0.01224
23.05000	2.07098	0.01209
23.10000	2.07101	0.01224
23.15000	2.07094	0.01179
23.20000	2.07091	0.01228
23.25000	2.07106	0.01247
23.30000	2.07101	0.01251
23.35000	2.07091	0.01216
23.40000	2.07095	0.01202
23.45000	2.07101	0.01205
23.50000	2.07104	0.01220
23.55000	2.07102	0.01195
23.60000	2.07094	0.01228
23.65000	2.07097	0.01270
23.70000	2.07092	0.01239
23.75000	2.07101	0.01205
23.80000	2.07105	0.01202
23.85000	2.07091	0.01195
23.90000	2.07097	0.01228
23.95000	2.07100	0.01220
24.00000	2.07091	0.01168
24.05000	2.07103	0.01239
24.10000	2.07098	0.01209
24.15000	2.07096	0.01212
24.20000	2.07095	0.01183
24.25000	2.07095	0.01262
24.30000	2.07103	0.01216
24.35000	2.07106	0.01247
24.40000	2.07092	0.01176
24.45000	2.07090	0.01224
24.50000	2.07099	0.01228
24.55000	2.07092	0.01224
24.60000	2.07095	0.01228
24.65000	2.07090	0.01220
24.70000	2.07096	0.01209
24.75000	2.07098	0.01228
24.80000	2.07093	0.01209
24.85000	2.07108	0.01183
24.90000	2.07100	0.01231
24.95000	2.07098	0.01199
25.00000	2.07100	0.01270
25.05000	2.07094	0.01195
25.10000	2.07091	0.01209
25.15000	2.07098	0.01191
25.20000	2.07099	0.01224
25.25000	2.07099	0.01216
25.30000	2.07098	0.01291
25.35000	2.07097	0.01258
25.40000	2.07097	0.01228
25.45000	2.07090	0.01202
25.50000	2.07101	0.01172
25.55000	2.07103	0.01243
25.60000	2.07101	0.01247
25.65000	2.07098	0.01205
25.70000	2.07098	0.01205
25.75000	2.07101	0.01220
25.80000	2.07096	0.01231
25.85000	2.07095	0.01247
25.90000	2.07093	0.01243
25.95000	2.07091	0.01199
26.00000	2.07100	0.01220
26.05000	2.07097	0.01235
26.10000	2.07094	0.01205
26.15000	2.07093	0.01202
26.20000	2.07101	0.01205
26.25000	2.07106	0.01205
26.30000	2.07093	0.01191
26.35000	2.07095	0.01254
26.40000	2.07101	0.01220
26.45000	2.07106	0.01212
26.50000	2.07095	0.01191
26.55000	2.07099	0.01195
26.60000	2.07103	0.01220
26.65000	2.07096	0.01235
26.70000	2.07090	0.01212
26.75000	2.07102	0.01168
26.80000	2.07096	0.01212
26.85000	2.07099	0.01212
26.90000	2.07099	0.01199
26.95000	2.07093	0.01235
27.00000	2.07093	0.01224
27.05000	2.07093	0.01247
27.10000	2.07103	0.01187
27.15000	2.07098	0.01209
27.20000	2.07098	0.01247
27.25000	2.07099	0.01239
27.30000	2.07098	0.01231
27.35000	2.07095	0.01187
27.40000	2.07098	0.01231
27.45000	2.07095	0.01258
27.50000	2.07096	0.01202
27.55000	2.07092	0.01205
27.60000	2.07094	0.01231
27.65000	2.07094	0.01228
27.70000	2.07101	0.01216
27.75000	2.07091	0.01183
27.80000	2.07092	0.01209
27.85000	2.07098	0.01205
27.90000	2.07102	0.01224
27.95000	2.07107	0.01247
28.00000	2.07097	0.01212
28.05000	2.07096	0.01254
28.10000	2.07096	0.01239
28.15000	2.07090	0.01216
28.20000	2.07096	0.01202
28.25000	2.07100	0.01251
28.30000	2.07101	0.01251
28.35000	2.07101	0.01247
28.40000	2.07093	0.01195
28.45000	2.07087	0.01216
28.50000	2.07101	0.01251
28.55000	2.07098	0.01228
28.60000	2.07094	0.01212
28.65000	2.07100	0.01224
28.70000	2.07100	0.01235
28.75000	2.07101	0.01254
28.80000	2.07096	0.01224
28.85000	2.07095	0.01212
28.90000	2.07093	0.01243
28.95000	2.07097	0.01239
29.00000	2.07107	0.01243
29.05000	2.07099	0.01231
29.10000	2.07091	0.01243
29.15000	2.07097	0.01231
29.20000	2.07103	0.01209
29.25000	2.07092	0.01191
29.30000	2.07092	0.01254
29.35000	2.07098	0.01254
29.40000	2.07096	0.01220
29.45000	2.07097	0.01172
29.50000	2.07089	0.01191
29.55000	2.07099	0.01216
29.60000	2.07099	0.01231
29.65000	2.07089	0.01224
29.70000	2.07093	0.01231
29.75000	2.07098	0.01216
29.80000	2.07096	0.01243
29.85000	2.07097	0.01228
29.90000	2.07091	0.01239
29.95000	2.07095	0.01205
30.00000	2.07093	0.01243
