Current (mA)	Peak position(s) (nm)
 2.000	848.604
 3.000	848.604	848.829
 4.000	848.537	848.806	849.053
 5.000	848.761	849.053	849.322
 6.000	848.986	849.299	849.567
 7.000	849.254	849.590
 8.000	849.165	849.523	849.880
 9.000	849.008	849.456	849.835	850.169
10.000	849.322	849.746	850.125	850.502
12.000	849.946	850.302	850.414	850.813	851.211
14.000	850.147	850.658	851.056	851.144	851.564	851.982
16.000	850.901	851.431	851.850	851.938	852.377	852.814
18.000	851.762	852.311	852.749	852.836	853.294	853.729
20.000	852.683	853.251	853.794	854.249
