Current (mA)	Voltage (V)	Power (mW)
0.00000	0.10590	0.00185
0.05000	0.68312	0.00166
0.10000	1.37380	0.00189
0.15000	1.40507	0.00170
0.20000	1.42927	0.00147
0.25000	1.44847	0.00181
0.30000	1.46547	0.00159
0.35000	1.48053	0.00178
0.40000	1.49362	0.00178
0.45000	1.50596	0.00147
0.50000	1.51699	0.00136
0.55000	1.52771	0.00162
0.60000	1.53748	0.00204
0.65000	1.54689	0.00170
0.70000	1.55586	0.00147
0.75000	1.56426	0.00185
0.80000	1.57242	0.00197
0.85000	1.58015	0.00197
0.90000	1.58781	0.00271
0.95000	1.59492	0.00260
1.00000	1.60206	0.00275
1.05000	1.60902	0.00264
1.10000	1.61549	0.00271
1.15000	1.62199	0.00312
1.20000	1.62813	0.00410
1.25000	1.63432	0.00585
1.30000	1.63989	0.00899
1.35000	1.64527	0.01854
1.40000	1.65028	0.03171
1.45000	1.65498	0.04662
1.50000	1.65966	0.06259
1.55000	1.66419	0.07835
1.60000	1.66888	0.09380
1.65000	1.67336	0.10950
1.70000	1.67797	0.12438
1.75000	1.68259	0.13985
1.80000	1.68697	0.15463
1.85000	1.69156	0.16962
1.90000	1.69589	0.18396
1.95000	1.70029	0.19878
2.00000	1.70467	0.21189
2.05000	1.70916	0.22625
2.10000	1.71357	0.24001
2.15000	1.71778	0.25320
2.20000	1.72221	0.26655
2.25000	1.72639	0.27937
2.30000	1.73074	0.29230
2.35000	1.73487	0.30419
2.40000	1.73908	0.31679
2.45000	1.74340	0.32871
2.50000	1.74749	0.34023
2.55000	1.75173	0.35167
2.60000	1.75574	0.36345
2.65000	1.75983	0.37451
2.70000	1.76393	0.38516
2.75000	1.76787	0.39529
2.80000	1.77197	0.40562
2.85000	1.77589	0.41574
2.90000	1.77994	0.42595
2.95000	1.78376	0.43503
3.00000	1.78772	0.44442
3.05000	1.79181	0.45324
3.10000	1.79563	0.46180
3.15000	1.79946	0.47002
3.20000	1.80326	0.47776
3.25000	1.80716	0.48655
3.30000	1.81079	0.49346
3.35000	1.81464	0.50045
3.40000	1.81851	0.50782
3.45000	1.82216	0.51392
3.50000	1.82586	0.52102
3.55000	1.82951	0.52714
3.60000	1.83317	0.53267
3.65000	1.83681	0.53862
3.70000	1.84045	0.54382
3.75000	1.84406	0.54868
3.80000	1.84760	0.55309
3.85000	1.85117	0.55787
3.90000	1.85467	0.56210
3.95000	1.85831	0.56595
4.00000	1.86162	0.56912
4.05000	1.86516	0.57275
4.10000	1.86862	0.57593
4.15000	1.87195	0.57885
4.20000	1.87546	0.58150
4.25000	1.87879	0.58348
4.30000	1.88224	0.58538
4.35000	1.88544	0.58734
4.40000	1.88876	0.58838
4.45000	1.89218	0.58947
4.50000	1.89537	0.59055
4.55000	1.89864	0.59081
4.60000	1.90183	0.59156
4.65000	1.90506	0.59103
4.70000	1.90825	0.59081
4.75000	1.91149	0.59003
4.80000	1.91462	0.58905
4.85000	1.91769	0.58822
4.90000	1.92096	0.58759
4.95000	1.92400	0.58550
5.00000	1.92710	0.58333
5.05000	1.93012	0.58105
5.10000	1.93313	0.57862
5.15000	1.93627	0.57645
5.20000	1.93926	0.57331
5.25000	1.94232	0.57018
5.30000	1.94513	0.56666
5.35000	1.94824	0.56273
5.40000	1.95119	0.55907
5.45000	1.95398	0.55413
5.50000	1.95697	0.54935
5.55000	1.95975	0.54524
5.60000	1.96269	0.54000
5.65000	1.96550	0.53480
5.70000	1.96835	0.52872
5.75000	1.97115	0.52277
5.80000	1.97408	0.51686
5.85000	1.97678	0.51077
5.90000	1.97950	0.50386
5.95000	1.98230	0.49743
6.00000	1.98496	0.49021
6.05000	1.98768	0.48265
6.10000	1.99056	0.47432
6.15000	1.99309	0.46655
6.20000	1.99582	0.45858
6.25000	1.99836	0.45002
6.30000	2.00116	0.44086
6.35000	2.00365	0.43215
6.40000	2.00635	0.42322
6.45000	2.00892	0.41365
6.50000	2.01146	0.40426
6.55000	2.01400	0.39418
6.60000	2.01661	0.38457
6.65000	2.01919	0.37425
6.70000	2.02160	0.36355
6.75000	2.02418	0.35230
6.80000	2.02670	0.34143
6.85000	2.02920	0.33040
6.90000	2.03158	0.31881
6.95000	2.03404	0.30625
7.00000	2.03645	0.29399
7.05000	2.03895	0.28266
7.10000	2.04144	0.27032
7.15000	2.04376	0.25705
7.20000	2.04617	0.24471
7.25000	2.04862	0.23160
7.30000	2.05088	0.21788
7.35000	2.05330	0.20464
7.40000	2.05547	0.19129
7.45000	2.05789	0.17765
7.50000	2.06033	0.16371
7.55000	2.06252	0.15010
7.60000	2.06488	0.13473
7.65000	2.06712	0.12106
7.70000	2.06936	0.10614
7.75000	2.07165	0.09267
7.80000	2.07118	0.09488
7.85000	2.07111	0.09488
7.90000	2.07116	0.09484
7.95000	2.07108	0.09463
8.00000	2.07105	0.09447
8.05000	2.07113	0.09518
8.10000	2.07113	0.09511
8.15000	2.07105	0.09496
8.20000	2.07110	0.09444
8.25000	2.07105	0.09444
8.30000	2.07110	0.09466
8.35000	2.07110	0.09425
8.40000	2.07108	0.09455
8.45000	2.07109	0.09444
8.50000	2.07103	0.09466
8.55000	2.07112	0.09507
8.60000	2.07120	0.09484
8.65000	2.07104	0.09455
8.70000	2.07113	0.09522
8.75000	2.07120	0.09488
8.80000	2.07115	0.09496
8.85000	2.07105	0.09499
8.90000	2.07109	0.09541
8.95000	2.07116	0.09406
9.00000	2.07114	0.09421
9.05000	2.07106	0.09413
9.10000	2.07112	0.09484
9.15000	2.07105	0.09455
9.20000	2.07105	0.09515
9.25000	2.07109	0.09511
9.30000	2.07114	0.09507
9.35000	2.07116	0.09477
9.40000	2.07108	0.09466
9.45000	2.07110	0.09459
9.50000	2.07107	0.09503
9.55000	2.07109	0.09463
9.60000	2.07113	0.09488
9.65000	2.07118	0.09425
9.70000	2.07100	0.09432
9.75000	2.07100	0.09451
9.80000	2.07113	0.09530
9.85000	2.07110	0.09463
9.90000	2.07106	0.09492
9.95000	2.07110	0.09515
10.00000	2.07121	0.09488
10.05000	2.07110	0.09463
10.10000	2.07107	0.09477
10.15000	2.07110	0.09555
10.20000	2.07110	0.09492
10.25000	2.07118	0.09496
10.30000	2.07108	0.09459
10.35000	2.07108	0.09559
10.40000	2.07111	0.09444
10.45000	2.07112	0.09534
10.50000	2.07115	0.09503
10.55000	2.07113	0.09496
10.60000	2.07113	0.09499
10.65000	2.07103	0.09537
10.70000	2.07108	0.09582
10.75000	2.07104	0.09555
10.80000	2.07107	0.09593
10.85000	2.07108	0.09511
10.90000	2.07112	0.09601
10.95000	2.07108	0.09530
11.00000	2.07110	0.09548
11.05000	2.07115	0.09537
11.10000	2.07110	0.09541
11.15000	2.07110	0.09548
11.20000	2.07109	0.09589
11.25000	2.07105	0.09518
11.30000	2.07113	0.09492
11.35000	2.07112	0.09499
11.40000	2.07110	0.09518
11.45000	2.07110	0.09515
11.50000	2.07116	0.09480
11.55000	2.07115	0.09522
11.60000	2.07103	0.09515
11.65000	2.07101	0.09534
11.70000	2.07110	0.09534
11.75000	2.07108	0.09526
11.80000	2.07108	0.09507
11.85000	2.07115	0.09551
11.90000	2.07122	0.09537
11.95000	2.07110	0.09616
12.00000	2.07112	0.09518
12.05000	2.07113	0.09488
12.10000	2.07112	0.09459
12.15000	2.07110	0.09466
12.20000	2.07112	0.09484
12.25000	2.07108	0.09484
12.30000	2.07119	0.09526
12.35000	2.07109	0.09480
12.40000	2.07109	0.09522
12.45000	2.07112	0.09518
12.50000	2.07117	0.09534
12.55000	2.07115	0.09518
12.60000	2.07112	0.09522
12.65000	2.07113	0.09455
12.70000	2.07118	0.09484
12.75000	2.07117	0.09574
12.80000	2.07110	0.09534
12.85000	2.07114	0.09530
12.90000	2.07104	0.09653
12.95000	2.07120	0.09608
13.00000	2.07115	0.09601
13.05000	2.07100	0.09548
13.10000	2.07113	0.09578
13.15000	2.07110	0.09555
13.20000	2.07115	0.09597
13.25000	2.07108	0.09551
13.30000	2.07108	0.09601
13.35000	2.07121	0.09534
13.40000	2.07110	0.09559
13.45000	2.07112	0.09511
13.50000	2.07111	0.09545
13.55000	2.07109	0.09534
13.60000	2.07107	0.09537
13.65000	2.07111	0.09559
13.70000	2.07105	0.09484
13.75000	2.07108	0.09541
13.80000	2.07116	0.09578
13.85000	2.07120	0.09534
13.90000	2.07107	0.09555
13.95000	2.07105	0.09601
14.00000	2.07110	0.09545
14.05000	2.07108	0.09593
14.10000	2.07110	0.09537
14.15000	2.07107	0.09548
14.20000	2.07112	0.09484
14.25000	2.07115	0.09570
14.30000	2.07108	0.09548
14.35000	2.07109	0.09597
14.40000	2.07115	0.09605
14.45000	2.07116	0.09616
14.50000	2.07109	0.09626
14.55000	2.07113	0.09582
14.60000	2.07110	0.09545
14.65000	2.07118	0.09589
14.70000	2.07109	0.09593
14.75000	2.07107	0.09488
14.80000	2.07113	0.09567
14.85000	2.07108	0.09574
14.90000	2.07106	0.09638
14.95000	2.07115	0.09541
15.00000	2.07114	0.09555
15.05000	2.07117	0.09593
15.10000	2.07116	0.09597
15.15000	2.07112	0.09537
15.20000	2.07110	0.09545
15.25000	2.07112	0.09526
15.30000	2.07108	0.09567
15.35000	2.07110	0.09530
15.40000	2.07113	0.09619
15.45000	2.07108	0.09657
15.50000	2.07108	0.09612
15.55000	2.07109	0.09593
15.60000	2.07114	0.09559
15.65000	2.07114	0.09563
15.70000	2.07104	0.09545
15.75000	2.07117	0.09507
15.80000	2.07115	0.09537
15.85000	2.07106	0.09515
15.90000	2.07113	0.09503
15.95000	2.07120	0.09526
16.00000	2.07110	0.09492
16.05000	2.07112	0.09455
16.10000	2.07109	0.09492
16.15000	2.07110	0.09466
16.20000	2.07103	0.09425
16.25000	2.07106	0.09488
16.30000	2.07113	0.09425
16.35000	2.07111	0.09425
16.40000	2.07109	0.09484
16.45000	2.07109	0.09440
16.50000	2.07109	0.09432
16.55000	2.07113	0.09440
16.60000	2.07113	0.09518
16.65000	2.07106	0.09589
16.70000	2.07115	0.09563
16.75000	2.07106	0.09470
16.80000	2.07115	0.09477
16.85000	2.07105	0.09548
16.90000	2.07108	0.09555
16.95000	2.07114	0.09503
17.00000	2.07112	0.09574
17.05000	2.07114	0.09570
17.10000	2.07105	0.09548
17.15000	2.07114	0.09496
17.20000	2.07110	0.09522
17.25000	2.07103	0.09451
17.30000	2.07109	0.09484
17.35000	2.07106	0.09447
17.40000	2.07106	0.09436
17.45000	2.07113	0.09492
17.50000	2.07115	0.09507
17.55000	2.07110	0.09451
17.60000	2.07106	0.09488
17.65000	2.07115	0.09463
17.70000	2.07110	0.09459
17.75000	2.07108	0.09496
17.80000	2.07108	0.09373
17.85000	2.07111	0.09440
17.90000	2.07105	0.09406
17.95000	2.07105	0.09470
18.00000	2.07109	0.09417
18.05000	2.07113	0.09440
18.10000	2.07103	0.09425
18.15000	2.07108	0.09511
18.20000	2.07115	0.09466
18.25000	2.07118	0.09503
18.30000	2.07105	0.09463
18.35000	2.07103	0.09447
18.40000	2.07108	0.09459
18.45000	2.07114	0.09444
18.50000	2.07113	0.09463
18.55000	2.07108	0.09570
18.60000	2.07113	0.09534
18.65000	2.07105	0.09459
18.70000	2.07114	0.09463
18.75000	2.07117	0.09409
18.80000	2.07118	0.09413
18.85000	2.07110	0.09421
18.90000	2.07113	0.09425
18.95000	2.07119	0.09432
19.00000	2.07103	0.09474
19.05000	2.07111	0.09470
19.10000	2.07116	0.09477
19.15000	2.07108	0.09395
19.20000	2.07107	0.09440
19.25000	2.07118	0.09492
19.30000	2.07113	0.09480
19.35000	2.07108	0.09436
19.40000	2.07112	0.09444
19.45000	2.07108	0.09413
19.50000	2.07108	0.09492
19.55000	2.07115	0.09522
19.60000	2.07103	0.09526
19.65000	2.07115	0.09496
19.70000	2.07110	0.09432
19.75000	2.07111	0.09409
19.80000	2.07113	0.09436
19.85000	2.07121	0.09463
19.90000	2.07116	0.09409
19.95000	2.07117	0.09425
20.00000	2.07108	0.09463
20.05000	2.07108	0.09466
20.10000	2.07113	0.09369
20.15000	2.07111	0.09409
20.20000	2.07108	0.09392
20.25000	2.07106	0.09484
20.30000	2.07108	0.09477
20.35000	2.07109	0.09459
20.40000	2.07098	0.09440
20.45000	2.07109	0.09440
20.50000	2.07113	0.09421
20.55000	2.07114	0.09477
20.60000	2.07115	0.09444
20.65000	2.07106	0.09518
20.70000	2.07110	0.09492
20.75000	2.07110	0.09480
20.80000	2.07106	0.09530
20.85000	2.07108	0.09548
20.90000	2.07109	0.09503
20.95000	2.07116	0.09555
21.00000	2.07115	0.09534
21.05000	2.07115	0.09555
21.10000	2.07107	0.09526
21.15000	2.07110	0.09534
21.20000	2.07111	0.09548
21.25000	2.07108	0.09507
21.30000	2.07102	0.09518
21.35000	2.07106	0.09545
21.40000	2.07112	0.09507
21.45000	2.07106	0.09534
21.50000	2.07103	0.09518
21.55000	2.07105	0.09518
21.60000	2.07113	0.09484
21.65000	2.07110	0.09463
21.70000	2.07103	0.09432
21.75000	2.07108	0.09403
21.80000	2.07113	0.09455
21.85000	2.07111	0.09399
21.90000	2.07110	0.09459
21.95000	2.07107	0.09376
22.00000	2.07108	0.09403
22.05000	2.07115	0.09409
22.10000	2.07110	0.09361
22.15000	2.07104	0.09447
22.20000	2.07112	0.09376
22.25000	2.07112	0.09417
22.30000	2.07108	0.09373
22.35000	2.07114	0.09440
22.40000	2.07108	0.09480
22.45000	2.07110	0.09417
22.50000	2.07109	0.09373
22.55000	2.07105	0.09474
22.60000	2.07113	0.09428
22.65000	2.07110	0.09455
22.70000	2.07108	0.09477
22.75000	2.07109	0.09477
22.80000	2.07111	0.09409
22.85000	2.07113	0.09459
22.90000	2.07115	0.09499
22.95000	2.07101	0.09480
23.00000	2.07110	0.09541
23.05000	2.07111	0.09522
23.10000	2.07123	0.09518
23.15000	2.07115	0.09499
23.20000	2.07110	0.09534
23.25000	2.07120	0.09586
23.30000	2.07112	0.09601
23.35000	2.07109	0.09484
23.40000	2.07110	0.09503
23.45000	2.07115	0.09440
23.50000	2.07104	0.09545
23.55000	2.07108	0.09470
23.60000	2.07106	0.09589
23.65000	2.07108	0.09474
23.70000	2.07109	0.09534
23.75000	2.07107	0.09466
23.80000	2.07106	0.09537
23.85000	2.07118	0.09459
23.90000	2.07108	0.09522
23.95000	2.07116	0.09597
24.00000	2.07114	0.09511
24.05000	2.07123	0.09530
24.10000	2.07111	0.09548
24.15000	2.07115	0.09555
24.20000	2.07112	0.09548
24.25000	2.07101	0.09608
24.30000	2.07108	0.09582
24.35000	2.07108	0.09551
24.40000	2.07103	0.09518
24.45000	2.07100	0.09563
24.50000	2.07115	0.09534
24.55000	2.07107	0.09537
24.60000	2.07104	0.09511
24.65000	2.07110	0.09582
24.70000	2.07111	0.09589
24.75000	2.07113	0.09507
24.80000	2.07105	0.09526
24.85000	2.07113	0.09589
24.90000	2.07110	0.09518
24.95000	2.07110	0.09578
25.00000	2.07110	0.09589
25.05000	2.07108	0.09555
25.10000	2.07115	0.09534
25.15000	2.07105	0.09567
25.20000	2.07111	0.09582
25.25000	2.07111	0.09597
25.30000	2.07112	0.09541
25.35000	2.07108	0.09548
25.40000	2.07113	0.09526
25.45000	2.07113	0.09555
25.50000	2.07110	0.09570
25.55000	2.07111	0.09530
25.60000	2.07114	0.09563
25.65000	2.07113	0.09507
25.70000	2.07101	0.09582
25.75000	2.07113	0.09551
25.80000	2.07108	0.09545
25.85000	2.07103	0.09548
25.90000	2.07106	0.09653
25.95000	2.07119	0.09597
26.00000	2.07116	0.09626
26.05000	2.07112	0.09608
26.10000	2.07113	0.09619
26.15000	2.07111	0.09612
26.20000	2.07106	0.09645
26.25000	2.07115	0.09616
26.30000	2.07108	0.09570
26.35000	2.07113	0.09537
26.40000	2.07108	0.09522
26.45000	2.07112	0.09507
26.50000	2.07107	0.09522
26.55000	2.07105	0.09522
26.60000	2.07116	0.09526
26.65000	2.07118	0.09470
26.70000	2.07103	0.09451
26.75000	2.07111	0.09459
26.80000	2.07114	0.09507
26.85000	2.07115	0.09526
26.90000	2.07110	0.09484
26.95000	2.07107	0.09499
27.00000	2.07116	0.09455
27.05000	2.07113	0.09548
27.10000	2.07103	0.09537
27.15000	2.07105	0.09496
27.20000	2.07102	0.09597
27.25000	2.07114	0.09612
27.30000	2.07118	0.09574
27.35000	2.07113	0.09534
27.40000	2.07102	0.09551
27.45000	2.07116	0.09511
27.50000	2.07113	0.09537
27.55000	2.07109	0.09488
27.60000	2.07104	0.09484
27.65000	2.07118	0.09534
27.70000	2.07104	0.09484
27.75000	2.07109	0.09466
27.80000	2.07107	0.09496
27.85000	2.07108	0.09526
27.90000	2.07110	0.09470
27.95000	2.07103	0.09530
28.00000	2.07103	0.09507
28.05000	2.07098	0.09474
28.10000	2.07106	0.09484
28.15000	2.07105	0.09466
28.20000	2.07090	0.09515
28.25000	2.07098	0.09477
28.30000	2.07102	0.09582
28.35000	2.07096	0.09541
28.40000	2.07088	0.09503
28.45000	2.07104	0.09459
28.50000	2.07095	0.09507
28.55000	2.07095	0.09522
28.60000	2.07093	0.09567
28.65000	2.07103	0.09582
28.70000	2.07093	0.09530
28.75000	2.07099	0.09522
28.80000	2.07099	0.09511
28.85000	2.07098	0.09537
28.90000	2.07101	0.09551
28.95000	2.07096	0.09526
29.00000	2.07099	0.09612
29.05000	2.07100	0.09567
29.10000	2.07100	0.09499
29.15000	2.07103	0.09511
29.20000	2.07100	0.09555
29.25000	2.07098	0.09574
29.30000	2.07103	0.09597
29.35000	2.07107	0.09551
29.40000	2.07097	0.09541
29.45000	2.07094	0.09545
29.50000	2.07099	0.09586
29.55000	2.07095	0.09555
29.60000	2.07098	0.09518
29.65000	2.07098	0.09567
29.70000	2.07107	0.09589
29.75000	2.07097	0.09537
29.80000	2.07095	0.09518
29.85000	2.07095	0.09530
29.90000	2.07102	0.09537
29.95000	2.07101	0.09526
30.00000	2.07100	0.09477
